BE/eV	PE: 46.95 eV
555.0	2952.5
554.95	2920.0
554.9	3010.0
554.85	2855.0
554.8	2792.5
554.75	2960.0
554.7	2832.5
554.65	2855.0
554.6	2930.0
554.55	2947.5
554.5	2932.5
554.45	2970.0
554.4	2955.0
554.35	2765.0
554.3	3050.0
554.25	2945.0
554.2	3042.5
554.15	2990.0
554.1	3007.5
554.05	2795.0
554.0	2855.0
553.95	2812.5
553.9	2960.0
553.85	2862.5
553.8	2782.5
553.75	2940.0
553.7	2912.5
553.65	2910.0
553.6	2965.0
553.55	2905.0
553.5	2822.5
553.45	2965.0
553.4	2972.5
553.35	2910.0
553.3	2837.5
553.25	3035.0
553.2	3022.5
553.15	2792.5
553.1	2955.0
553.05	3030.0
553.0	3005.0
552.95	2870.0
552.9	2942.5
552.85	3110.0
552.8	3070.0
552.75	2847.5
552.7	3015.0
552.65	3090.0
552.6	2777.5
552.55	2760.0
552.5	2805.0
552.45	3020.0
552.4	2850.0
552.35	2955.0
552.3	2830.0
552.25	2797.5
552.2	2960.0
552.15	2825.0
552.1	2905.0
552.05	2877.5
552.0	2935.0
551.95	2735.0
551.9	2992.5
551.85	2862.5
551.8	2955.0
551.75	2980.0
551.7	2970.0
551.65	2970.0
551.6	2795.0
551.55	3000.0
551.5	2807.5
551.45	2835.0
551.4	2905.0
551.35	2970.0
551.3	3027.5
551.25	2832.5
551.2	2902.5
551.15	3012.5
551.1	2760.0
551.05	2860.0
551.0	2812.5
550.95	2897.5
550.9	2867.5
550.85	2810.0
550.8	2807.5
550.75	2872.5
550.7	2855.0
550.65	2770.0
550.6	2952.5
550.55	2777.5
550.5	3035.0
550.45	3032.5
550.4	2830.0
550.35	2817.5
550.3	2890.0
550.25	2860.0
550.2	2777.5
550.15	2840.0
550.1	2955.0
550.05	2930.0
550.0	2800.0
549.95	2810.0
549.9	2727.5
549.85	2880.0
549.8	2795.0
549.75	2850.0
549.7	2810.0
549.65	2947.5
549.6	2712.5
549.55	2920.0
549.5	2927.5
549.45	2880.0
549.4	2792.5
549.35	2797.5
549.3	2735.0
549.25	2880.0
549.2	2822.5
549.15	2780.0
549.1	2917.5
549.05	2787.5
549.0	2802.5
548.95	2860.0
548.9	2897.5
548.85	2870.0
548.8	2900.0
548.75	2945.0
548.7	2835.0
548.65	2940.0
548.6	2742.5
548.55	2772.5
548.5	2930.0
548.45	2922.5
548.4	2887.5
548.35	2722.5
548.3	2587.5
548.25	2900.0
548.2	2752.5
548.15	3050.0
548.1	2690.0
548.05	2935.0
548.0	2962.5
547.95	2872.5
547.9	2842.5
547.85	2915.0
547.8	2735.0
547.75	2947.5
547.7	2867.5
547.65	2982.5
547.6	2847.5
547.55	2817.5
547.5	2632.5
547.45	2882.5
547.4	2850.0
547.35	2805.0
547.3	2920.0
547.25	2882.5
547.2	2835.0
547.15	2720.0
547.1	2877.5
547.05	2987.5
547.0	2912.5
546.95	2827.5
546.9	2787.5
546.85	2862.5
546.8	2787.5
546.75	2842.5
546.7	2897.5
546.65	2977.5
546.6	2675.0
546.55	2777.5
546.5	2952.5
546.45	2972.5
546.4	2877.5
546.35	2880.0
546.3	2905.0
546.25	2810.0
546.2	2910.0
546.15	2777.5
546.1	2715.0
546.05	2857.5
546.0	2782.5
545.95	2887.5
545.9	2737.5
545.85	2890.0
545.8	2890.0
545.75	2752.5
545.7	2905.0
545.65	2702.5
545.6	2940.0
545.55	2845.0
545.5	2800.0
545.45	2910.0
545.4	3015.0
545.35	2770.0
545.3	2867.5
545.25	2687.5
545.2	2775.0
545.15	2835.0
545.1	2760.0
545.05	2777.5
545.0	2812.5
544.95	2817.5
544.9	2707.5
544.85	2615.0
544.8	2792.5
544.75	2815.0
544.7	2882.5
544.65	2817.5
544.6	2822.5
544.55	2650.0
544.5	2695.0
544.45	2657.5
544.4	2680.0
544.35	2747.5
544.3	2652.5
544.25	2857.5
544.2	2767.5
544.15	2980.0
544.1	2760.0
544.05	2677.5
544.0	2960.0
543.95	2837.5
543.9	2817.5
543.85	2640.0
543.8	2760.0
543.75	2722.5
543.7	2655.0
543.65	2662.5
543.6	2845.0
543.55	2882.5
543.5	2802.5
543.45	2680.0
543.4	2732.5
543.35	2772.5
543.3	2757.5
543.25	2707.5
543.2	2770.0
543.15	2792.5
543.1	2790.0
543.05	2750.0
543.0	2720.0
542.95	2607.5
542.9	2715.0
542.85	2810.0
542.8	2725.0
542.75	2810.0
542.7	2662.5
542.65	2547.5
542.6	2825.0
542.55	2817.5
542.5	2575.0
542.45	2860.0
542.4	2667.5
542.35	2750.0
542.3	2837.5
542.25	2815.0
542.2	2717.5
542.15	2707.5
542.1	2835.0
542.05	2827.5
542.0	2855.0
541.95	2712.5
541.9	2770.0
541.85	2812.5
541.8	2720.0
541.75	2695.0
541.7	2815.0
541.65	2812.5
541.6	2692.5
541.55	2657.5
541.5	2897.5
541.45	2715.0
541.4	2777.5
541.35	2642.5
541.3	2717.5
541.25	2685.0
541.2	2695.0
541.15	2767.5
541.1	2707.5
541.05	2617.5
541.0	2740.0
540.95	2645.0
540.9	2690.0
540.85	2732.5
540.8	2670.0
540.75	2795.0
540.7	2707.5
540.65	2737.5
540.6	2835.0
540.55	2590.0
540.5	2760.0
540.45	2610.0
540.4	2712.5
540.35	2665.0
540.3	2770.0
540.25	2820.0
540.2	2675.0
540.15	2685.0
540.1	2795.0
540.05	2732.5
540.0	2662.5
539.95	2577.5
539.9	2770.0
539.85	2632.5
539.8	2792.5
539.75	2652.5
539.7	2705.0
539.65	2695.0
539.6	2747.5
539.55	2700.0
539.5	2722.5
539.45	2642.5
539.4	2642.5
539.35	2652.5
539.3	2797.5
539.25	2662.5
539.2	2832.5
539.15	2822.5
539.1	2715.0
539.05	2692.5
539.0	2825.0
538.95	2690.0
538.9	2770.0
538.85	2770.0
538.8	2802.5
538.75	2705.0
538.7	2687.5
538.65	2647.5
538.6	2755.0
538.55	2692.5
538.5	2767.5
538.45	2775.0
538.4	2687.5
538.35	2857.5
538.3	2600.0
538.25	2735.0
538.2	2807.5
538.15	2762.5
538.1	2667.5
538.05	2642.5
538.0	2735.0
537.95	2795.0
537.9	2687.5
537.85	2717.5
537.8	2770.0
537.75	2712.5
537.7	2812.5
537.65	2667.5
537.6	2797.5
537.55	2762.5
537.5	2835.0
537.45	2900.0
537.4	2985.0
537.35	2727.5
537.3	2812.5
537.25	2730.0
537.2	2752.5
537.15	2755.0
537.1	2817.5
537.05	2707.5
537.0	2787.5
536.95	2670.0
536.9	2742.5
536.85	2872.5
536.8	2670.0
536.75	2775.0
536.7	2657.5
536.65	2695.0
536.6	2772.5
536.55	2855.0
536.5	2680.0
536.45	2670.0
536.4	2697.5
536.35	2867.5
536.3	2672.5
536.25	2647.5
536.2	2682.5
536.15	2757.5
536.1	2700.0
536.05	2725.0
536.0	2792.5
535.95	2680.0
535.9	2722.5
535.85	2665.0
535.8	2690.0
535.75	2817.5
535.7	2910.0
535.65	2785.0
535.6	2730.0
535.55	2752.5
535.5	2867.5
535.45	2537.5
535.4	2912.5
535.35	2697.5
535.3	2722.5
535.25	2747.5
535.2	2787.5
535.15	2957.5
535.1	2722.5
535.05	2817.5
535.0	2925.0
534.95	2792.5
534.9	2782.5
534.85	2832.5
534.8	2750.0
534.75	2757.5
534.7	2942.5
534.65	3017.5
534.6	2765.0
534.55	2760.0
534.5	2927.5
534.45	2835.0
534.4	3017.5
534.35	2997.5
534.3	2930.0
534.25	3140.0
534.2	3130.0
534.15	3030.0
534.1	3012.5
534.05	3107.5
534.0	3227.5
533.95	3192.5
533.9	3120.0
533.85	3157.5
533.8	3375.0
533.75	3385.0
533.7	3475.0
533.65	3537.5
533.6	3470.0
533.55	3312.5
533.5	3727.5
533.45	3672.5
533.4	3725.0
533.35	3462.5
533.3	3797.5
533.25	3860.0
533.2	3675.0
533.15	3927.5
533.1	3902.5
533.05	3852.5
533.0	3752.5
532.95	4057.5
532.9	3922.5
532.85	4012.5
532.8	4282.5
532.75	4165.0
532.7	4167.5
532.65	4107.5
532.6	4282.5
532.55	4337.5
532.5	4330.0
532.45	4337.5
532.4	4430.0
532.35	4317.5
532.3	4262.5
532.25	4300.0
532.2	4522.5
532.15	4187.5
532.1	4372.5
532.05	4550.0
532.0	4525.0
531.95	4495.0
531.9	4475.0
531.85	4505.0
531.8	4512.5
531.75	4430.0
531.7	4382.5
531.65	4455.0
531.6	4627.5
531.55	4507.5
531.5	4475.0
531.45	4287.5
531.4	4322.5
531.35	4362.5
531.3	4360.0
531.25	4212.5
531.2	4207.5
531.15	4260.0
531.1	4112.5
531.05	4237.5
531.0	4267.5
530.95	4072.5
530.9	4260.0
530.85	4007.5
530.8	3990.0
530.75	3877.5
530.7	4047.5
530.65	3857.5
530.6	4065.0
530.55	3890.0
530.5	3962.5
530.45	3715.0
530.4	3815.0
530.35	3570.0
530.3	3597.5
530.25	3690.0
530.2	3662.5
530.15	3627.5
530.1	3510.0
530.05	3420.0
530.0	3487.5
529.95	3325.0
529.9	3370.0
529.85	3512.5
529.8	3312.5
529.75	3307.5
529.7	3270.0
529.65	3132.5
529.6	3385.0
529.55	3235.0
529.5	3047.5
529.45	3140.0
529.4	3022.5
529.35	3072.5
529.3	3040.0
529.25	2880.0
529.2	2877.5
529.15	2797.5
529.1	2832.5
529.05	2965.0
529.0	2865.0
528.95	2777.5
528.9	2940.0
528.85	2767.5
528.8	2855.0
528.75	2690.0
528.7	2690.0
528.65	2840.0
528.6	2787.5
528.55	2705.0
528.5	2687.5
528.45	2665.0
528.4	2730.0
528.35	2732.5
528.3	2620.0
528.25	2745.0
528.2	2722.5
528.15	2740.0
528.1	2625.0
528.05	2617.5
528.0	2727.5
527.95	2692.5
527.9	2667.5
527.85	2655.0
527.8	2707.5
527.75	2597.5
527.7	2600.0
527.65	2580.0
527.6	2507.5
527.55	2607.5
527.5	2517.5
527.45	2665.0
527.4	2612.5
527.35	2770.0
527.3	2620.0
527.25	2540.0
527.2	2545.0
527.15	2565.0
527.1	2457.5
527.05	2700.0
527.0	2627.5
526.95	2465.0
526.9	2542.5
526.85	2622.5
526.8	2700.0
526.75	2545.0
526.7	2527.5
526.65	2710.0
526.6	2567.5
526.55	2567.5
526.5	2672.5
526.45	2652.5
526.4	2560.0
526.35	2662.5
526.3	2625.0
526.25	2582.5
526.2	2707.5
526.15	2697.5
526.1	2532.5
526.05	2555.0
526.0	2465.0
525.95	2580.0
525.9	2577.5
525.85	2742.5
525.8	2650.0
525.75	2715.0
525.7	2785.0
525.65	2637.5
525.6	2487.5
525.55	2545.0
525.5	2617.5
525.45	2747.5
525.4	2752.5
525.35	2520.0
525.3	2625.0
525.25	2697.5
525.2	2612.5
525.15	2595.0
525.1	2405.0
525.05	2687.5
525.0	2552.5
